 xrayspectrum, 100kV, 17 anode angle with 2.5mmAl total filtration
 94, 0.006,0
0.007,  0
0.008,  0
0.009,  0
0.01,  0
0.011,  0
0.012,  0
0.013,  0.00001
0.014,  0.00003
0.015,  0.00012
0.016,  0.00034
0.017,  0.00078
0.018,  0.00151
0.019,  0.00258
0.02,  0.00399
0.021,  0.00563
0.022,  0.00744
0.023,  0.00937
0.024,  0.01133
0.025,  0.01324
0.026,  0.01505
0.027,  0.01672
0.028,  0.0182
0.029,  0.0195
0.03,  0.02059
0.031,  0.02135
0.032,  0.0219
0.033,  0.0223
0.034,  0.02257
0.035,  0.02271
0.036,  0.02275
0.037,  0.0227
0.038,  0.02256
0.039,  0.02236
0.04,  0.02211
0.041,  0.02173
0.042,  0.02131
0.043,  0.02087
0.044,  0.02042
0.045,  0.01995
0.046,  0.01948
0.047,  0.019
0.048,  0.01852
0.049,  0.01805
0.05,  0.01757
0.051,  0.01707
0.052,  0.01657
0.053,  0.01608
0.054,  0.0156
0.055,  0.01513
0.056,  0.01467
0.057,  0.01422
0.058,  0.01378
0.059,  0.02985
0.06,  0.04201
0.061,  0.01249
0.062,  0.01207
0.063,  0.01166
0.064,  0.01125
0.065,  0.01086
0.066,  0.01047
0.067,  0.01009
0.068,  0.02005
0.069,  0.00936
0.07,  0.0109
0.071,  0.0078
0.072,  0.00754
0.073,  0.00728
0.074,  0.00701
0.075,  0.00675
0.076,  0.00648
0.077,  0.00621
0.078,  0.00595
0.079,  0.00568
0.08,  0.00541
0.081,  0.00515
0.082,  0.00488
0.083,  0.00461
0.084,  0.00434
0.085,  0.00407
0.086,  0.00381
0.087,  0.00354
0.088,  0.00328
0.089,  0.00302
0.09,  0.00276
0.091,  0.0025
0.092,  0.00224
0.093,  0.00198
0.094,  0.00173
0.095,  0.00147
0.096,  0.00122
0.097,  0.00097
0.098,  0.00073
0.099,  0.00048
0.1,  0.00024
