 xrayspectrum, 110kV, 17 anode angle with 2.5mmAl total filtration
 104, 0.006,0
0.007,  0
0.008,  0
0.009,  0
0.01,  0
0.011,  0
0.012,  0
0.013,  0
0.014,  0.00002
0.015,  0.00009
0.016,  0.00026
0.017,  0.00061
0.018,  0.00119
0.019,  0.00205
0.02,  0.0032
0.021,  0.00456
0.022,  0.0061
0.023,  0.00776
0.024,  0.00949
0.025,  0.01122
0.026,  0.01289
0.027,  0.01445
0.028,  0.01588
0.029,  0.01715
0.03,  0.01825
0.031,  0.01906
0.032,  0.01968
0.033,  0.02016
0.034,  0.02052
0.035,  0.02076
0.036,  0.02089
0.037,  0.02094
0.038,  0.0209
0.039,  0.02079
0.04,  0.02063
0.041,  0.02035
0.042,  0.02002
0.043,  0.01966
0.044,  0.01929
0.045,  0.0189
0.046,  0.0185
0.047,  0.01809
0.048,  0.01768
0.049,  0.01727
0.05,  0.01685
0.051,  0.01641
0.052,  0.01597
0.053,  0.01554
0.054,  0.01512
0.055,  0.0147
0.056,  0.01429
0.057,  0.01389
0.058,  0.0135
0.059,  0.03407
0.06,  0.04973
0.061,  0.01236
0.062,  0.01199
0.063,  0.01163
0.064,  0.01127
0.065,  0.01093
0.066,  0.01059
0.067,  0.01026
0.068,  0.02317
0.069,  0.00962
0.07,  0.01166
0.071,  0.00782
0.072,  0.00763
0.073,  0.00743
0.074,  0.00723
0.075,  0.00703
0.076,  0.00683
0.077,  0.00663
0.078,  0.00643
0.079,  0.00622
0.08,  0.00602
0.081,  0.00582
0.082,  0.00561
0.083,  0.00541
0.084,  0.0052
0.085,  0.005
0.086,  0.00479
0.087,  0.00459
0.088,  0.00439
0.089,  0.00419
0.09,  0.00399
0.091,  0.00379
0.092,  0.00359
0.093,  0.00339
0.094,  0.00319
0.095,  0.00299
0.096,  0.0028
0.097,  0.0026
0.098,  0.00241
0.099,  0.00221
0.1,  0.00202
0.101,  0.00183
0.102,  0.00164
0.103,  0.00145
0.104,  0.00127
0.105,  0.00108
0.106,  0.0009
0.107,  0.00071
0.108,  0.00053
0.109,  0.00035
0.11,  0.00018
