 xrayspectrum, 120kV, 17 anode angle with 2.5mmAl total filtration
 114, 0.006,0
0.007,  0
0.008,  0
0.009,  0
0.01,  0
0.011,  0
0.012,  0
0.013,  0
0.014,  0.00002
0.015,  0.00007
0.016,  0.00021
0.017,  0.00049
0.018,  0.00096
0.019,  0.00166
0.02,  0.00261
0.021,  0.00375
0.022,  0.00506
0.023,  0.0065
0.024,  0.00803
0.025,  0.00959
0.026,  0.01112
0.027,  0.01259
0.028,  0.01395
0.029,  0.01519
0.03,  0.01629
0.031,  0.01714
0.032,  0.01781
0.033,  0.01836
0.034,  0.01879
0.035,  0.01911
0.036,  0.01933
0.037,  0.01946
0.038,  0.0195
0.039,  0.01948
0.04,  0.01939
0.041,  0.01919
0.042,  0.01894
0.043,  0.01866
0.044,  0.01835
0.045,  0.01803
0.046,  0.01769
0.047,  0.01735
0.048,  0.01699
0.049,  0.01663
0.05,  0.01626
0.051,  0.01587
0.052,  0.01547
0.053,  0.01509
0.054,  0.0147
0.055,  0.01432
0.056,  0.01395
0.057,  0.01359
0.058,  0.01324
0.059,  0.0375
0.06,  0.05608
0.061,  0.0122
0.062,  0.01186
0.063,  0.01153
0.064,  0.01121
0.065,  0.01089
0.066,  0.01058
0.067,  0.01029
0.068,  0.02569
0.069,  0.00971
0.07,  0.01212
0.071,  0.00764
0.072,  0.00749
0.073,  0.00733
0.074,  0.00717
0.075,  0.00702
0.076,  0.00686
0.077,  0.0067
0.078,  0.00654
0.079,  0.00638
0.08,  0.00622
0.081,  0.00606
0.082,  0.0059
0.083,  0.00573
0.084,  0.00557
0.085,  0.00541
0.086,  0.00525
0.087,  0.00508
0.088,  0.00492
0.089,  0.00476
0.09,  0.0046
0.091,  0.00444
0.092,  0.00428
0.093,  0.00413
0.094,  0.00397
0.095,  0.00381
0.096,  0.00365
0.097,  0.0035
0.098,  0.00334
0.099,  0.00319
0.1,  0.00304
0.101,  0.00288
0.102,  0.00273
0.103,  0.00258
0.104,  0.00242
0.105,  0.00227
0.106,  0.00212
0.107,  0.00198
0.108,  0.00183
0.109,  0.00168
0.11,  0.00153
0.111,  0.00139
0.112,  0.00125
0.113,  0.0011
0.114,  0.00096
0.115,  0.00082
0.116,  0.00068
0.117,  0.00054
0.118,  0.0004
0.119,  0.00027
0.12,  0.00013
