 xrayspectrum, 60kV, 17 anode angle with 2.5mmAl total filtration
 54, 0.006,0
 0.007,   0.00000
 0.008,   0.00000
 0.009,   0.00000
 0.010,   0.00000
 0.011,   0.00000
 0.012,   0.00000
 0.013,   0.00002
 0.014,   0.00013
 0.015,   0.00048
 0.016,   0.00131
 0.017,   0.00282
 0.018,   0.00513
 0.019,   0.00819
 0.020,   0.01183
 0.021,   0.01564
 0.022,   0.01944
 0.023,   0.02312
 0.024,   0.02653
 0.025,   0.02956
 0.026,   0.03216
 0.027,   0.03431
 0.028,   0.03601
 0.029,   0.03728
 0.030,   0.03816
 0.031,   0.03843
 0.032,   0.03835
 0.033,   0.03804
 0.034,   0.03754
 0.035,   0.03687
 0.036,   0.03605
 0.037,   0.03511
 0.038,   0.03407
 0.039,   0.03293
 0.040,   0.03171
 0.041,   0.03033
 0.042,   0.02890
 0.043,   0.02743
 0.044,   0.02595
 0.045,   0.02444
 0.046,   0.02293
 0.047,   0.02140
 0.048,   0.01986
 0.049,   0.01832
 0.050,   0.01677
 0.051,   0.01520
 0.052,   0.01362
 0.053,   0.01206
 0.054,   0.01050
 0.055,   0.00896
 0.056,   0.00743
 0.057,   0.00591
 0.058,   0.00441
 0.059,   0.00292
 0.060,   0.00145